#*** The properties of the matching ***
#Date of the computation:	2018/05/20 17:05:20
#Source graph set:	./././data/molecules/train.txt (22 graphs)
#Target graph set:	./././data/molecules/valid.txt (19 graphs)
#Graph edit distance procedure:	Hungarian
#Edge mode:		undirected
#Cost for node deletion/insertion:	3.0
#Cost for edge deletion/insertion:	3.0
#Alpha weighting factor between node and edge costs:	0.8
#Node attribute 0:	symbol;	Cost function:	discrete;	mu = 0 nu = 2;	Soft factor:	1.0
#No attributes for edges defined
#Individual node costs are added
#Individual edge costs are added
#(Combined node cost)^(1/1.0)
#(Combined edge cost)^(1/1.0)
#Complete Matching Time: 2950
#Number of Fails: 0
#
#*** The distance matrix ***
# 	... data is printed in the following order ((s)ource,(t)arget):
#		[d(s1,t1); d(s1,t2); d(s1,t3); ... d(s1,tn); d(s2,t1); d(s2,t2);...]
87.00000
84.20000
82.80000
83.20000
75.80000
74.80000
78.20000
76.00000
77.00000
92.20000
89.20000
88.80000
88.20000
98.80000
87.60000
92.00000
87.60000
95.20000
88.20000
85.80000
82.60000
79.60000
78.80000
79.40000
74.80000
74.60000
77.20000
75.80000
92.20000
89.20000
87.60000
88.20000
94.80000
85.20000
90.00000
88.80000
88.00000
90.60000
89.20000
86.00000
83.80000
79.40000
83.60000
83.00000
78.80000
83.00000
75.60000
96.40000
93.40000
91.80000
92.40000
97.80000
88.20000
94.20000
93.00000
94.60000
94.80000
96.00000
92.80000
92.20000
88.60000
86.80000
83.80000
86.00000
83.80000
84.80000
96.00000
95.80000
96.60000
97.20000
97.00000
97.80000
100.20000
97.80000
99.40000
99.60000
109.20000
107.20000
104.20000
99.40000
97.60000
99.00000
101.60000
95.40000
94.00000
113.60000
112.60000
111.00000
110.40000
109.00000
112.20000
111.00000
111.00000
110.20000
112.80000
114.00000
113.20000
109.00000
102.20000
100.00000
99.00000
106.40000
99.00000
101.20000
116.00000
116.20000
113.40000
114.00000
120.20000
114.60000
115.80000
113.40000
118.60000
117.60000
114.00000
110.80000
110.20000
104.20000
104.80000
100.20000
105.20000
102.60000
101.20000
122.00000
118.60000
117.00000
117.60000
119.80000
115.80000
118.20000
117.00000
119.80000
120.00000
122.40000
118.00000
118.60000
109.00000
109.60000
106.20000
112.40000
102.60000
103.60000
126.80000
119.80000
120.60000
121.20000
119.80000
119.40000
121.80000
121.80000
123.40000
122.40000
122.40000
120.40000
118.60000
109.00000
109.60000
105.00000
111.20000
106.20000
107.20000
128.00000
124.60000
123.00000
122.40000
127.00000
120.60000
124.20000
123.00000
124.60000
124.80000
131.40000
129.40000
126.40000
121.60000
122.20000
118.80000
125.40000
116.40000
119.80000
136.20000
134.80000
132.00000
133.80000
138.40000
133.20000
133.20000
132.00000
136.00000
135.00000
136.80000
132.40000
130.60000
125.80000
127.60000
125.40000
128.00000
125.40000
122.80000
140.00000
140.20000
138.60000
138.00000
139.00000
138.60000
137.40000
138.60000
139.00000
140.40000
31.20000
40.80000
42.60000
49.80000
48.00000
56.60000
51.60000
55.40000
59.60000
29.60000
25.80000
28.20000
26.40000
28.20000
27.40000
28.20000
28.20000
27.00000
29.20000
28.20000
39.00000
38.40000
48.40000
49.00000
53.60000
48.60000
53.60000
57.80000
25.40000
26.00000
26.80000
26.20000
27.20000
27.20000
27.20000
26.40000
28.40000
30.60000
29.60000
37.60000
41.80000
43.80000
46.40000
55.00000
48.40000
53.80000
58.00000
27.60000
25.80000
26.60000
26.00000
23.80000
27.00000
25.40000
25.40000
24.20000
28.00000
26.20000
35.80000
42.80000
45.20000
48.20000
50.40000
51.80000
46.80000
53.40000
22.60000
26.80000
30.00000
29.40000
27.60000
27.60000
29.20000
27.20000
28.80000
29.80000
31.40000
39.80000
42.80000
44.80000
46.60000
52.00000
51.80000
52.00000
53.80000
21.00000
25.20000
28.40000
27.80000
22.00000
26.00000
27.60000
27.20000
27.20000
25.80000
26.20000
37.00000
38.80000
39.60000
42.60000
49.60000
46.60000
48.40000
51.40000
21.40000
19.60000
22.00000
23.80000
22.40000
19.60000
23.20000
22.00000
20.40000
21.40000
28.00000
37.60000
42.20000
51.00000
50.40000
52.60000
51.20000
51.40000
55.60000
27.20000
31.00000
29.40000
30.00000
28.20000
28.20000
32.20000
27.80000
32.20000
30.40000
23.80000
35.80000
38.80000
40.80000
41.40000
48.40000
46.60000
48.40000
51.40000
22.60000
21.20000
20.80000
23.80000
21.20000
22.00000
24.80000
22.00000
20.80000
23.00000
25.00000
34.20000
38.40000
43.20000
43.00000
51.60000
47.40000
50.40000
54.60000
24.60000
19.60000
20.80000
21.40000
23.20000
21.20000
20.40000
23.20000
22.80000
24.20000
24.00000
32.40000
38.20000
47.00000
44.00000
47.40000
44.80000
46.20000
48.00000
22.00000
22.20000
25.40000
27.20000
28.60000
24.20000
24.60000
22.60000
27.00000
24.00000
32.20000
39.00000
39.20000
46.40000
49.00000
56.40000
47.80000
55.20000
59.40000
29.40000
25.60000
28.00000
26.20000
20.80000
27.20000
23.60000
28.00000
20.80000
27.80000
